File: data/clean_resins.csv
resin_name,glass_transition_temp_C,curing_temp_C,density_g_cm3,viscosity_Pa_s,cost_usd_kg,reference
Cobalt + MEKP,60.0,80.0,1.2,0.35,2.0,"N.V. Rachchh et al, 2014"
Polyester resin,60.0,80.0,1.2,0.35,2.0,"K. Senthil Kumar et al, 2015"
PLA biopolyme,55.0,80.0,1.25,0.35,2.5,"R. Siakeng et al, 2020"
Epoxy,50.0,112.0,1.15,0.4,2.8,"S. Radoor et al, 2019"
Vinyl ester resin,100.0,120.0,1.05,0.25,3.2,"Md Mahadi et al, 2023"
Starch based resin,60.0,120.0,1.3,0.25,3.2,"M. D. Hazrol et al, 2020"
Phenolic resin,170.0,150.0,1.25,0.6,2.4,"H. A. Aisyah et al, 2021"
Polypropylene (PP),-10.0,150.0,0.9,0.6,2.4,"H. A. Aisyah et al, 2021"
Polyethylene (PE),-125.0,150.0,0.92,0.6,2.4,"H. A. Aisyah et al, 2021"
Poly(L-lactic acid) (PLLA),60.0,150.0,1.24,0.6,2.6,"Khan et al, 2016"